MORPHOLOGY AT STRAIN =    1.0000  FOR PHASE  1
   1.133   3.874   0.228  <-- AXES OF PHASE ELLIPSOID
 -161.94   90.00   90.00  <-- EULER ANGLES OF PHASE ELLIPSOID (deg)
   1.091   2.395   0.413  <-- AVERAGE OF GRAIN AXES FOR PHASE
   0.098   0.308   0.248  <-- STANDARD DEV OF AVG GRAIN AXES FOR PHASE
B       500
   99.81  122.18  -26.31     0.002000       0.9746    2.1198    0.4833
   73.89   93.05  -25.64     0.002000       1.1075    2.8681    0.3137
   79.01   87.14  -24.07     0.002000       1.0008    4.1186    0.2427
   90.43   89.34  -27.59     0.002000       1.1271    1.9612    0.4517
   88.66   92.89  -27.65     0.002000       1.1231    1.9901    0.4468
   93.00   88.99  -24.11     0.002000       1.0000    4.3056    0.2327
   92.71   86.67  -28.03     0.002000       1.1336    2.0933    0.4210
   99.85   86.54  -25.13     0.002000       1.0281    3.6093    0.2693
   93.55   88.18  -26.95     0.002000       1.1389    1.9793    0.4427
   87.73   70.56  -26.88     0.002000       1.0231    2.5639    0.3806
   84.08   85.43  -24.05     0.002000       1.0003    4.1943    0.2387
   86.90   93.38  -24.36     0.002000       1.0010    4.1524    0.2410
   95.12   88.13  -26.50     0.002000       1.1907    1.8562    0.4511
   87.84   90.98  -26.84     0.002000       1.2152    2.0005    0.4103
   87.26   96.10  -27.61     0.002000       1.1786    1.7698    0.4783
   90.80   86.40  -29.69     0.002000       0.9539    2.0517    0.5112
   89.60   84.75  -24.42     0.002000       1.0014    4.0767    0.2453
   91.51   57.14  -30.68     0.002000       0.8792    1.9549    0.5813
   89.85   67.70  -30.67     0.002000       0.8321    1.9790    0.6072
   86.70  101.73  -26.37     0.002000       1.0499    2.9123    0.3266
   99.24   89.23  -25.95     0.002000       1.2794    1.9091    0.4077
   72.54   90.38  -25.07     0.002000       1.0791    3.1215    0.2959
   88.71   96.29  -24.72     0.002000       1.0093    3.8876    0.2551
   76.46   89.14  -24.45     0.002000       1.0183    3.8186    0.2570
   90.22   90.68  -27.66     0.002000       1.1177    1.9630    0.4552
  104.19   99.39  -23.48     0.002000       1.3028    1.7084    0.4472
   88.58   92.45  -26.65     0.002000       1.1370    1.8681    0.4697
   93.88   90.48  -26.71     0.002000       1.2012    1.9938    0.4164
   91.66   86.02  -30.09     0.002000       0.9948    2.3619    0.4264
   85.51   88.16  -26.30     0.002000       1.2378    1.9542    0.4120
   89.57   92.19  -27.03     0.002000       1.1137    1.8968    0.4724
  116.88   92.85  -24.85     0.002000       1.2319    2.4911    0.3240
   94.65   91.53  -26.44     0.002000       1.2543    1.9769    0.4020
   94.39   84.27  -30.28     0.002000       0.9725    2.2159    0.4646
   62.44   84.94  -25.07     0.002000       1.3336    2.3739    0.3143
   97.24   91.51  -26.30     0.002000       1.2865    1.9590    0.3954
   70.13   88.53  -24.75     0.002000       1.0848    3.0910    0.2971
   79.09  109.13  -27.78     0.002000       1.0444    1.8341    0.5207
   90.99   83.38  -28.15     0.002000       1.1043    1.6853    0.5364
   92.64   87.00  -27.63     0.002000       1.1520    2.0839    0.4160
  100.40   74.14  -27.90     0.002000       1.0740    2.1473    0.4323
   89.07   91.12  -25.89     0.002000       1.1569    1.8818    0.4579
   87.75   93.41  -27.61     0.002000       1.1260    2.0141    0.4403
  117.79   98.45  -23.79     0.002000       1.1600    3.0244    0.2839
   87.65   90.98  -26.81     0.002000       1.1738    1.9877    0.4276
   92.77   88.02  -28.20     0.002000       1.1368    2.0792    0.4228
   89.49  113.59  -27.81     0.002000       1.0168    2.2006    0.4460
   89.08   92.54  -27.61     0.002000       1.1219    1.9764    0.4503
  105.16   94.17  -25.80     0.002000       1.3557    2.0068    0.3660
   98.91  103.97  -24.95     0.002000       1.0228    3.2119    0.3041
   90.27  100.12  -25.42     0.002000       1.0271    3.3928    0.2869
   87.52   92.85  -27.05     0.002000       1.1291    1.9384    0.4560
   85.92   90.02  -26.69     0.002000       1.2384    1.9679    0.4091
   98.79   91.15  -24.19     0.002000       1.0003    4.1637    0.2403
   94.89   57.98  -30.16     0.002000       0.9122    1.8948    0.5777
   89.88   90.55  -30.22     0.002000       0.8632    1.9620    0.5905
   92.37   84.67  -28.38     0.002000       0.9776    1.9698    0.5189
  117.21   93.79  -24.91     0.002000       1.2454    2.7373    0.2919
   89.78   92.70  -24.12     0.002000       1.0001    4.2880    0.2337
   87.69   91.65  -27.73     0.002000       1.1524    1.9522    0.4438
   86.59   88.39  -23.99     0.002000       1.0000    4.3479    0.2305
   88.61   93.92  -27.22     0.002000       1.1471    2.0169    0.4314
   89.20   96.61  -29.71     0.002000       0.8378    1.9408    0.6148
   94.27   91.85  -24.02     0.002000       1.0001    4.3100    0.2324
   92.84   88.71  -27.12     0.002000       1.1108    1.9121    0.4699
   86.18   92.20  -27.18     0.002000       1.1316    1.9883    0.4436
   74.48   88.84  -24.54     0.002000       1.0343    3.6121    0.2672
   75.97   90.80  -25.33     0.002000       1.2748    1.8825    0.4147
   75.45   95.51  -26.12     0.002000       1.1212    2.6698    0.3328
   86.76   92.94  -26.98     0.002000       1.2119    1.9131    0.4301
   93.79   88.36  -28.11     0.002000       1.1378    2.1785    0.4032
   88.11   93.15  -27.81     0.002000       1.1249    2.0245    0.4386
   90.56   82.30  -24.96     0.002000       1.0107    3.7478    0.2642
   91.74   85.74  -28.03     0.002000       0.9921    1.9551    0.5151
   81.71   94.60  -25.16     0.002000       1.0333    3.5777    0.2704
   89.35   85.53  -24.29     0.002000       1.0005    4.1597    0.2407
   75.80   85.01  -23.96     0.002000       1.0076    3.9800    0.2493
   62.93   85.71  -24.74     0.002000       1.2411    2.8098    0.2854
   87.33   93.05  -27.12     0.002000       1.1312    1.9832    0.4449
   73.40   88.13  -24.45     0.002000       1.0389    3.5823    0.2682
   86.19   91.85  -27.14     0.002000       1.1420    2.0022    0.4365
   95.79   83.40  -25.40     0.002000       1.0254    3.5301    0.2762
   86.99   80.05  -25.01     0.002000       1.0145    3.5875    0.2748
   87.45   92.85  -27.02     0.002000       1.1165    1.9284    0.4635
   91.53   89.20  -24.04     0.002000       1.0000    4.3493    0.2304
   87.71   93.36  -27.54     0.002000       1.1252    2.0041    0.4428
   89.40   92.67  -27.96     0.002000       1.1296    2.0306    0.4355
   94.10   93.18  -23.95     0.002000       0.9934    1.6049    0.6259
   87.21   90.20  -26.77     0.002000       1.2182    2.0040    0.4085
   94.10   87.72  -27.95     0.002000       1.1216    2.0420    0.4362
   77.87   87.54  -24.11     0.002000       1.0029    4.1033    0.2431
   90.55   79.27  -25.69     0.002000       1.0244    3.3066    0.2951
   90.50   93.12  -30.71     0.002000       0.9119    2.1363    0.5139
   67.17   89.89  -25.25     0.002000       1.1870    2.4092    0.3478
   89.40   92.08  -27.48     0.002000       1.1189    1.9514    0.4573
  105.14   90.57  -24.72     0.002000       1.0345    3.5624    0.2708
   95.22  106.33  -25.91     0.002000       1.0291    2.8473    0.3408
   90.05   94.02  -28.68     0.002000       0.9824    1.9851    0.5126
   92.18   98.30  -30.72     0.002000       0.8347    2.0317    0.5899
   88.98   92.17  -28.10     0.002000       1.1238    2.0362    0.4366
   87.64   94.99  -28.99     0.002000       0.9902    2.0948    0.4821
   88.70   93.49  -27.92     0.002000       1.1340    2.0526    0.4292
   87.49   90.22  -26.56     0.002000       1.1813    1.9593    0.4309
  116.38   94.89  -24.47     0.002000       1.1836    3.0295    0.2777
   92.78   90.63  -28.24     0.002000       1.1416    2.0515    0.4267
   91.09   90.72  -27.12     0.002000       1.1126    1.8988    0.4725
   98.97   83.93  -25.71     0.002000       1.0471    3.2753    0.2912
   96.09   92.57  -26.20     0.002000       1.2681    1.9547    0.4020
   87.35   89.95  -26.69     0.002000       1.2188    1.9939    0.4104
   91.26   89.08  -27.94     0.002000       1.1194    2.0031    0.4455
  105.94   92.74  -24.33     0.002000       1.0231    3.7510    0.2602
   82.44  119.05  -27.80     0.002000       0.8965    1.7067    0.6524
   86.10   56.58  -28.85     0.002000       0.9153    2.0352    0.5363
   82.83   91.94  -26.02     0.002000       1.2219    1.8642    0.4374
   95.82   94.17  -25.34     0.002000       1.2555    1.8342    0.4325
  103.92   94.68  -25.70     0.002000       1.3404    1.9643    0.3782
   87.56   97.40  -29.25     0.002000       0.9685    2.0421    0.5056
   96.48  105.71  -25.60     0.002000       1.0271    2.9516    0.3294
   97.08   89.10  -26.81     0.002000       1.1797    1.9719    0.4288
   72.41   92.89  -25.72     0.002000       1.1296    2.6981    0.3267
   97.92   86.49  -24.91     0.002000       1.0136    3.8131    0.2588
   91.35   89.02  -28.31     0.002000       1.1304    2.1729    0.4070
  103.00   73.86  -27.81     0.002000       1.0865    1.9448    0.4718
   93.02  122.47  -28.86     0.002000       0.8958    1.9597    0.5691
  103.62   89.30  -24.87     0.002000       1.0338    3.5780    0.2699
   82.60  105.11  -27.48     0.002000       1.0750    2.3063    0.4022
   90.27   88.31  -29.67     0.002000       0.9978    2.3670    0.4242
  117.28   93.19  -24.86     0.002000       1.2464    2.4747    0.3224
   82.06   88.30  -26.11     0.002000       1.3239    1.9573    0.3843
   83.14   86.23  -24.00     0.002000       1.0002    4.2250    0.2370
   93.07   87.88  -28.02     0.002000       1.1206    2.0367    0.4377
   96.32   90.37  -27.34     0.002000       1.0511    1.6197    0.5865
   92.27   91.00  -27.78     0.002000       1.1608    1.9539    0.4403
   92.47  113.55  -27.27     0.002000       1.0172    2.2914    0.4282
  112.19   93.52  -25.24     0.002000       1.3016    1.9943    0.3833
   83.58   58.99  -27.95     0.002000       0.8633    2.0376    0.5681
   94.49  123.54  -28.12     0.002000       0.9345    2.0206    0.5290
   87.40   92.86  -27.74     0.002000       1.1370    2.0666    0.4251
   90.58   87.51  -17.38     0.002000       0.9856    1.4944    0.6772
   76.59   90.79  -25.34     0.002000       1.2658    1.8746    0.4194
   86.63   78.68  -25.24     0.002000       1.0191    3.4166    0.2871
   98.52  105.95  -25.30     0.002000       1.0240    2.9899    0.3262
   85.50   91.93  -26.59     0.002000       1.1722    1.9050    0.4466
   97.20   81.54  -26.12     0.002000       1.0497    3.0980    0.3071
   92.60   87.67  -27.29     0.002000       1.1695    1.9345    0.4411
   92.93   86.82  -27.58     0.002000       1.1215    2.0030    0.4445
   87.30   91.57  -26.87     0.002000       1.1523    1.9811    0.4371
   90.68   87.46  -30.22     0.002000       1.0073    2.2566    0.4407
   92.17   89.86  -28.48     0.002000       1.1236    2.1921    0.4060
   87.18   95.75  -29.90     0.002000       0.9842    2.1622    0.4703
  109.50   91.25  -24.99     0.002000       1.2718    1.9268    0.4060
   86.72   92.44  -26.82     0.002000       1.1160    1.9185    0.4660
   91.70   90.23  -28.77     0.002000       0.8995    1.8952    0.5864
   87.19   99.93  -26.64     0.002000       1.1347    1.6308    0.5391
   91.90   86.45  -29.49     0.002000       1.0056    2.1511    0.4626
   95.75  100.50  -24.77     0.002000       1.0187    3.5588    0.2758
  100.60   75.92  -27.64     0.002000       1.0853    2.2457    0.4090
   76.25   91.86  -25.10     0.002000       1.0550    3.3698    0.2807
   91.15   90.49  -27.73     0.002000       1.1237    1.9763    0.4497
   93.01   89.21  -27.81     0.002000       1.1396    2.0275    0.4323
   83.34   88.83  -26.31     0.002000       1.2953    1.9770    0.3891
   62.37   83.56  -24.92     0.002000       1.3436    2.2321    0.3318
   88.43   93.45  -27.76     0.002000       0.9952    1.9661    0.5105
  112.46   89.72  -25.64     0.002000       1.2360    2.1854    0.3682
   89.45   95.29  -28.60     0.002000       0.9741    1.9684    0.5213
   83.65   92.61  -25.86     0.002000       1.2552    1.8380    0.4318
   98.46   97.59  -24.16     0.002000       1.0046    3.9252    0.2536
   91.35   84.63  -24.59     0.002000       1.0030    4.0026    0.2494
   92.93   67.40  -18.99     0.002000       0.9998    1.4388    0.6940
   86.41   87.65  -25.82     0.002000       1.2091    1.8773    0.4390
   88.84   92.53  -27.69     0.002000       1.1220    1.9883    0.4477
   85.70   83.27  -24.33     0.002000       1.0027    4.0061    0.2492
   78.74   90.45  -24.51     0.002000       1.0123    3.9078    0.2528
   90.12   91.01  -29.28     0.002000       0.9999    2.2817    0.4387
   95.52   67.67  -28.63     0.002000       1.0128    2.1269    0.4632
   91.18   90.42  -27.36     0.002000       1.1288    1.9335    0.4574
   93.47   87.68  -27.62     0.002000       1.1188    1.9971    0.4469
   98.57   92.01  -26.10     0.002000       1.3166    1.9517    0.3876
   97.74   89.65  -20.62     0.002000       0.9406    1.5393    0.6892
   86.19   86.73  -25.39     0.002000       1.2043    1.8307    0.4519
  117.58   94.64  -25.17     0.002000       1.3327    2.3927    0.3120
   89.76   92.98  -25.88     0.002000       1.1111    1.7888    0.5018
  103.81   90.30  -25.70     0.002000       1.2977    1.8782    0.4084
   83.45  111.27  -28.26     0.002000       0.8383    1.7110    0.6962
   93.67   88.27  -26.56     0.002000       1.1295    1.9250    0.4588
   70.18   84.93  -25.49     0.002000       1.3649    2.0432    0.3569
   89.77   92.54  -26.74     0.002000       1.1811    1.9836    0.4258
   86.82   91.90  -27.37     0.002000       1.1631    1.9246    0.4458
   92.88   90.56  -27.93     0.002000       1.1481    2.1937    0.3968
   89.62   91.37  -27.76     0.002000       1.1197    1.9816    0.4501
   84.13   89.92  -26.67     0.002000       1.2231    1.9982    0.4080
   86.75   89.03  -26.44     0.002000       1.2207    1.9619    0.4163
   77.84   74.53  -24.69     0.002000       1.0170    3.1551    0.3113
   90.07   79.44  -17.40     0.002000       0.9962    1.4694    0.6815
   93.76   87.79  -27.34     0.002000       1.1292    1.9884    0.4446
   91.32   85.37  -27.83     0.002000       0.9755    1.9052    0.5375
   95.50   95.54  -24.14     0.002000       1.0010    4.1091    0.2434
   84.23   93.15  -24.54     0.002000       1.0042    4.0413    0.2467
   79.87   98.36  -26.42     0.002000       1.0917    2.7489    0.3323
   81.85  110.45  -28.48     0.002000       1.0257    1.9743    0.4927
   88.53  102.21  -26.20     0.002000       1.0429    2.9735    0.3221
   74.13   89.03  -25.32     0.002000       1.2981    1.9302    0.3971
   86.06   92.39  -27.84     0.002000       1.1269    2.0335    0.4358
   85.75   95.58  -31.07     0.002000       0.9720    2.3474    0.4393
   88.81   92.71  -27.71     0.002000       1.1230    1.9944    0.4459
   94.90   90.40  -27.31     0.002000       1.1546    1.9129    0.4519
   98.66  100.15  -24.41     0.002000       1.0146    3.6498    0.2699
   90.52   96.14  -27.98     0.002000       0.9571    1.8902    0.5523
   96.33   81.82  -25.91     0.002000       1.0410    3.2271    0.2974
   82.74   66.97  -26.42     0.002000       1.0115    2.4936    0.3958
   94.45  118.72  -27.24     0.002000       0.9986    2.1276    0.4698
   72.94   90.77  -25.14     0.002000       1.0802    3.1134    0.2964
   85.71   80.65  -24.74     0.002000       1.0108    3.7054    0.2671
   91.07   90.54  -28.19     0.002000       1.1342    2.0242    0.4352
   86.52   90.61  -24.06     0.002000       1.0000    4.3251    0.2317
   89.74  110.76  -19.57     0.002000       1.0072    1.4232    0.6967
   87.24   92.79  -27.44     0.002000       1.1451    2.0419    0.4270
  101.57   89.46  -24.64     0.002000       1.0139    3.8429    0.2566
   93.52   86.79  -27.76     0.002000       1.1277    2.0560    0.4308
   85.13   92.33  -27.23     0.002000       1.1537    1.9748    0.4380
   84.36  100.80  -26.48     0.002000       1.0620    2.8495    0.3298
   88.57   93.09  -28.10     0.002000       1.1360    2.0711    0.4247
   87.62   92.25  -27.33     0.002000       1.1573    1.9498    0.4423
   61.59   84.26  -24.50     0.002000       1.2460    2.7638    0.2890
   91.25   89.19  -27.70     0.002000       1.1172    1.9699    0.4538
   88.36   93.89  -27.44     0.002000       1.1305    1.9965    0.4423
   87.25   93.18  -27.32     0.002000       1.1277    1.9962    0.4434
   92.67   86.99  -27.77     0.002000       1.1215    2.0182    0.4412
   77.86   97.62  -26.43     0.002000       1.1098    2.6447    0.3396
   87.48   90.20  -28.40     0.002000       1.1292    2.1885    0.4046
   93.29   86.73  -25.80     0.002000       1.1098    1.8372    0.4890
   92.15   87.38  -27.92     0.002000       1.1215    2.0234    0.4402
   93.74   92.79  -24.02     0.002000       1.0001    4.2965    0.2331
   87.27   92.11  -26.91     0.002000       1.1421    1.9758    0.4422
  104.17   92.14  -24.34     0.002000       1.0122    3.8574    0.2559
   92.36   86.96  -28.18     0.002000       1.1265    2.0596    0.4306
   91.95   89.16  -27.85     0.002000       1.1196    1.9938    0.4475
   89.34   94.30  -28.84     0.002000       0.9989    2.1307    0.4699
   89.60   94.42  -27.26     0.002000       0.9888    1.8911    0.5340
   87.16   91.84  -27.77     0.002000       1.1443    1.9557    0.4462
   92.49   89.04  -28.03     0.002000       1.1344    2.0131    0.4374
  108.71   84.46  -26.29     0.002000       1.2047    2.1848    0.3780
   71.69   87.36  -24.35     0.002000       1.0541    3.5237    0.2686
   88.80   81.64  -24.90     0.002000       1.0103    3.7390    0.2649
   92.58   86.49  -27.62     0.002000       1.1294    2.0231    0.4370
   84.54   85.55  -25.09     0.002000       1.1886    1.8070    0.4639
   89.09   92.66  -26.49     0.002000       0.9877    1.8409    0.5489
   91.66  109.50  -26.94     0.002000       1.0312    2.4677    0.3922
   97.61   94.97  -25.29     0.002000       0.8814    1.6832    0.6731
   65.92   56.97  -21.96     0.002000       0.9918    1.9661    0.5124
   86.94   94.28  -29.73     0.002000       0.9934    2.2652    0.4449
   87.64   93.41  -26.79     0.002000       1.1281    1.9389    0.4562
   91.23   96.96  -30.00     0.002000       0.8538    1.9622    0.5969
   93.68   87.58  -27.18     0.002000       1.1301    1.9940    0.4429
  112.59   93.03  -25.38     0.002000       1.3439    2.0971    0.3530
   75.83   82.89  -23.90     0.002000       1.0075    3.8977    0.2545
   92.73   69.84  -27.81     0.002000       1.0273    2.3300    0.4169
   88.15   91.86  -27.64     0.002000       1.1628    2.1208    0.4050
   64.28   87.65  -24.74     0.002000       1.2034    2.5184    0.3281
   92.93   86.77  -27.07     0.002000       1.1166    1.9358    0.4617
   85.74   96.02  -27.28     0.002000       1.1449    1.6977    0.5132
   90.52   92.89  -30.19     0.002000       0.9861    2.2860    0.4444
   75.21   82.35  -23.86     0.002000       1.0107    3.8474    0.2570
   64.07   84.81  -24.31     0.002000       1.1774    3.0896    0.2738
   98.76   79.91  -26.75     0.002000       1.0698    2.7448    0.3398
  117.17   94.52  -25.24     0.002000       1.3405    2.3560    0.3150
   80.56   84.71  -24.00     0.002000       1.0005    4.0972    0.2441
   94.36   81.55  -25.69     0.002000       1.0295    3.3692    0.2882
   90.05   91.08  -28.28     0.002000       1.1270    2.0231    0.4383
   88.07   93.00  -26.95     0.002000       1.1150    1.9098    0.4686
   88.03   92.91  -27.32     0.002000       1.1196    1.9554    0.4560
  109.50   90.66  -25.02     0.002000       1.0860    3.0279    0.3029
   99.99   81.02  -26.57     0.002000       1.0092    1.6329    0.6055
