MORPHOLOGY AT STRAIN =    1.0000  FOR PHASE  1
   1.046   2.336   0.409  <-- AXES OF PHASE ELLIPSOID
 -154.08   90.00   90.00  <-- EULER ANGLES OF PHASE ELLIPSOID (deg)
   1.070   2.584   0.398  <-- AVERAGE OF GRAIN AXES FOR PHASE
   0.155   0.305   0.306  <-- STANDARD DEV OF AVG GRAIN AXES FOR PHASE
B       500
  116.75  126.68  -19.49     0.002000       1.0551    2.0433    0.4649
   77.23  110.87  -27.38     0.002000       1.0200    3.1630    0.3053
   71.85   90.95  -26.19     0.002000       1.0079    3.8411    0.2526
   93.69   90.18  -25.82     0.002000       1.2979    2.0321    0.3788
   80.36   92.88  -25.92     0.002000       1.2192    2.1872    0.3744
   93.47   86.66  -26.02     0.002000       1.0001    4.6713    0.2070
   91.83   88.40  -30.33     0.002000       1.1400    1.8319    0.4813
   99.71   77.94  -26.71     0.002000       1.0038    4.0088    0.2422
  100.08   89.79  -24.88     0.002000       1.3457    2.2373    0.3302
   75.64   63.38  -23.93     0.002000       1.0284    3.0169    0.3193
   77.53   86.49  -25.61     0.002000       1.0011    4.2092    0.2310
   88.10   95.60  -25.94     0.002000       1.0002    4.6199    0.2093
   97.44   83.15  -23.76     0.002000       0.8991    1.9162    0.5812
   77.23  102.30  -26.39     0.002000       1.1244    1.7940    0.4962
   86.69  102.63  -24.19     0.002000       0.7386    2.4146    0.5599
   96.26   87.12  -36.16     0.002000       0.9548    1.8530    0.5715
   85.21   82.80  -25.80     0.002000       1.0006    4.5718    0.2119
   76.34   49.39  -23.40     0.002000       0.8290    2.2613    0.5357
   81.55   76.36  -27.17     0.002000       0.7125    2.3714    0.5942
   94.70  111.66  -25.14     0.002000       1.0025    3.5989    0.2718
  103.84   65.60  -27.16     0.002000       0.8921    2.2006    0.5084
   72.91  104.69  -28.18     0.002000       1.0475    3.3596    0.2796
   93.22   99.11  -25.57     0.002000       1.0007    4.4275    0.2188
   71.83   96.12  -26.79     0.002000       1.0190    3.7013    0.2596
   89.04   90.60  -26.11     0.002000       1.2140    2.1462    0.3837
   78.48  108.76  -21.51     0.002000       1.1613    1.7310    0.4981
   85.06   93.48  -23.82     0.002000       1.1375    2.3151    0.3780
  111.45   88.87  -26.27     0.002000       1.4183    2.2614    0.3097
   96.37   85.50  -38.11     0.002000       0.9972    1.8681    0.5433
   62.86   89.61  -24.11     0.002000       1.4162    2.3254    0.3004
   86.04   93.68  -23.88     0.002000       1.1335    2.2455    0.3916
  115.84   80.39  -28.05     0.002000       1.1580    2.7215    0.3140
  114.99   85.85  -26.14     0.002000       1.4171    2.1337    0.3286
  104.33   80.81  -36.80     0.002000       0.9382    1.9225    0.5603
   61.00   85.73  -24.90     0.002000       1.3519    2.6561    0.2750
  111.40   73.54  -28.09     0.002000       1.1150    2.0098    0.4458
   69.73  101.82  -27.78     0.002000       1.0743    3.1251    0.2935
   90.53  130.49  -26.76     0.002000       0.8106    2.6591    0.4629
   91.98   81.84  -23.68     0.002000       0.8315    2.3768    0.5052
   94.67   83.42  -26.46     0.002000       1.0992    1.7121    0.5329
   93.40   54.88  -26.71     0.002000       0.9099    2.9331    0.3713
   95.23   82.87  -23.79     0.002000       1.1605    2.2665    0.3785
   83.60   92.38  -26.13     0.002000       1.2628    2.1491    0.3678
  117.76  100.02  -23.70     0.002000       1.3548    2.5477    0.2864
   76.53   91.78  -25.54     0.002000       1.4403    2.0933    0.3299
   86.65   86.89  -27.26     0.002000       1.0796    1.6323    0.5699
  102.60  123.90  -22.99     0.002000       0.9933    2.7435    0.3645
   82.86   93.98  -26.10     0.002000       1.2254    2.2014    0.3701
  119.60   92.69  -25.12     0.002000       1.4002    2.4977    0.2827
  111.23  106.19  -23.87     0.002000       1.0774    3.2638    0.2803
   98.54  104.95  -24.93     0.002000       1.0019    3.9662    0.2456
   85.16   91.23  -24.46     0.002000       1.1652    2.3673    0.3607
   78.11  104.47  -25.17     0.002000       1.0672    1.8782    0.4986
  103.60   86.77  -26.29     0.002000       1.0012    4.1468    0.2345
   85.59   56.00  -24.78     0.002000       0.7867    2.7377    0.4633
   79.75   88.34  -30.76     0.002000       0.7358    2.1644    0.6320
   97.73   78.12  -29.01     0.002000       0.8353    2.3172    0.5185
  118.07   86.53  -27.37     0.002000       1.1958    2.9394    0.2809
   91.77   93.13  -25.73     0.002000       1.0001    4.6750    0.2066
   94.10   97.72  -22.50     0.002000       0.9394    1.7867    0.5970
   83.58   89.14  -25.78     0.002000       1.0003    4.5478    0.2128
   88.70   90.79  -26.26     0.002000       1.3155    2.0922    0.3627
   92.32   98.18  -29.55     0.002000       0.8177    2.4223    0.5074
   97.65   89.74  -25.63     0.002000       1.0004    4.5226    0.2137
   93.67   89.55  -24.56     0.002000       1.2602    2.1268    0.3720
   77.51   91.96  -25.49     0.002000       1.3580    2.2017    0.3326
   70.80   97.58  -27.11     0.002000       1.0371    3.5212    0.2687
   75.23  107.74  -26.46     0.002000       0.9968    2.1584    0.4633
   79.28  115.30  -28.08     0.002000       1.0161    3.1058    0.3127
   84.74  101.42  -22.60     0.002000       0.8040    2.1602    0.5753
   91.65   87.26  -26.59     0.002000       1.0822    1.6928    0.5478
   86.51   93.21  -27.48     0.002000       1.2049    2.0995    0.3956
   84.70   78.54  -25.63     0.002000       1.0011    4.2944    0.2263
   93.61   83.95  -25.24     0.002000       0.9033    2.4336    0.4545
   83.34  102.57  -26.37     0.002000       1.0028    4.1337    0.2345
   85.40   84.01  -25.61     0.002000       1.0004    4.5218    0.2141
   67.19   88.22  -25.94     0.002000       1.0651    3.4820    0.2648
   61.69   88.47  -25.78     0.002000       1.2640    2.8781    0.2711
   81.78   91.41  -25.42     0.002000       1.3266    2.2424    0.3345
   69.25   96.51  -27.27     0.002000       1.0522    3.4350    0.2719
   75.98   92.90  -26.83     0.002000       1.3545    2.1556    0.3413
   92.40   76.03  -26.34     0.002000       1.0013    4.2270    0.2299
   77.98   77.15  -25.06     0.002000       1.0044    3.9188    0.2486
   81.47   91.37  -24.16     0.002000       1.2724    2.1504    0.3639
   91.48   87.66  -25.82     0.002000       1.0000    4.6645    0.2071
   80.05   91.53  -25.77     0.002000       1.2549    2.2100    0.3596
   89.13   92.56  -28.04     0.002000       1.2106    2.0559    0.4025
   91.09   80.43  -22.63     0.002000       0.8071    2.3714    0.5217
   71.71  101.32  -28.58     0.002000       1.2108    1.8955    0.4360
   96.93   84.40  -29.79     0.002000       1.1030    1.7205    0.5298
   70.79   92.23  -25.79     0.002000       1.0098    3.6965    0.2621
   82.54   73.44  -25.19     0.002000       1.0020    3.9175    0.2490
   83.67   86.93  -39.15     0.002000       0.9286    1.6679    0.6534
   71.72  110.75  -28.40     0.002000       1.0421    2.6487    0.3592
   85.02   93.09  -25.51     0.002000       1.1915    2.2219    0.3770
  108.38   80.89  -27.47     0.002000       1.0259    3.5947    0.2660
  109.00  111.18  -22.49     0.002000       1.0124    3.0939    0.3152
   87.35   93.56  -29.95     0.002000       0.9626    2.1772    0.4801
  104.69  114.23  -28.97     0.002000       0.7906    1.9059    0.6694
   88.91   94.00  -30.58     0.002000       1.1278    1.8564    0.4802
   82.18   99.14  -28.32     0.002000       0.9260    2.3542    0.4600
   88.25   92.05  -29.09     0.002000       1.1838    2.0162    0.4202
   75.46   89.21  -25.03     0.002000       1.4314    2.2111    0.3137
  119.48   92.26  -25.66     0.002000       1.2214    2.9797    0.2707
   88.25   91.04  -24.17     0.002000       1.0174    1.7449    0.5644
   87.57   92.34  -24.44     0.002000       1.1918    2.1962    0.3809
   96.13   73.20  -26.92     0.002000       1.0041    3.9480    0.2464
  115.31   92.04  -25.02     0.002000       1.4431    2.3232    0.2955
   71.22   97.34  -27.83     0.002000       1.3451    1.9915    0.3726
   96.27   89.17  -26.26     0.002000       1.2083    2.1012    0.3940
  112.28   86.02  -27.26     0.002000       1.0418    3.6106    0.2610
   91.85  122.00  -24.81     0.002000       0.7510    2.7389    0.4848
   70.11   49.68  -22.66     0.002000       0.9368    1.9975    0.5374
   79.80  105.36  -25.34     0.002000       0.9080    2.0011    0.5505
   85.15   97.82  -23.76     0.002000       1.4125    1.9812    0.3557
  118.47   94.27  -24.46     0.002000       1.4470    2.3185    0.2951
   82.63   98.16  -29.83     0.002000       0.8313    2.4144    0.5004
  109.10  109.93  -23.61     0.002000       1.0495    3.2509    0.2891
  105.80   75.69  -27.50     0.002000       1.0204    1.8702    0.5248
   76.05  112.78  -28.05     0.002000       1.0228    2.9952    0.3223
   97.89   79.96  -26.39     0.002000       1.0013    4.2070    0.2308
   90.30   91.69  -29.94     0.002000       1.1186    1.7798    0.5049
   93.59   51.30  -28.36     0.002000       0.8499    2.7963    0.4188
  101.29  116.77  -24.20     0.002000       0.7404    2.4792    0.5461
  105.82   79.53  -27.12     0.002000       1.0154    3.7135    0.2595
   90.05  122.67  -26.36     0.002000       0.9877    3.0328    0.3302
   91.83   88.48  -35.00     0.002000       0.9989    2.0672    0.4895
  117.50   82.35  -27.29     0.002000       1.1775    2.8236    0.2970
   65.95  102.79  -28.05     0.002000       1.1813    2.1577    0.3910
   76.81   87.94  -25.91     0.002000       1.0012    4.2365    0.2296
   95.55   86.49  -30.15     0.002000       1.1370    1.8689    0.4729
   94.00   85.70  -23.06     0.002000       0.8526    2.3068    0.5077
   85.80   87.83  -23.76     0.002000       0.9813    1.7465    0.5848
  106.60  121.32  -22.52     0.002000       1.0223    2.6893    0.3615
  115.90   76.01  -27.70     0.002000       1.1447    2.4857    0.3487
   77.83   76.50  -30.47     0.002000       0.7904    2.2201    0.5743
  109.85  128.25  -22.00     0.002000       0.8800    2.2553    0.5059
   87.57   89.78  -26.65     0.002000       1.2348    2.1224    0.3816
   87.71   95.16  -12.58     0.002000       0.9598    1.3465    0.7788
   74.33  105.89  -26.45     0.002000       1.0284    2.1252    0.4561
   76.76   75.14  -24.89     0.002000       1.0095    3.8226    0.2539
  111.36  109.09  -23.31     0.002000       1.0851    3.0535    0.2982
   79.15   96.17  -27.31     0.002000       1.3242    1.9720    0.3824
   92.42   70.48  -26.40     0.002000       1.0029    3.7575    0.2598
  102.49   85.83  -27.02     0.002000       1.0859    1.7606    0.5246
  101.07   87.53  -25.96     0.002000       1.2659    2.2027    0.3577
   76.79   89.14  -25.20     0.002000       1.3729    2.2670    0.3193
   97.76   85.61  -39.14     0.002000       1.0242    1.7321    0.5705
   89.94   90.33  -26.10     0.002000       1.0669    1.6712    0.5628
   77.63   99.79  -35.89     0.002000       0.9492    1.9072    0.5580
  116.34   77.39  -28.64     0.002000       1.1815    2.3410    0.3597
   80.66   91.03  -23.91     0.002000       1.3172    2.1143    0.3573
   89.14   95.71  -25.40     0.002000       0.7752    2.4303    0.5311
   88.84   98.02  -24.72     0.002000       0.7864    2.4746    0.5133
   98.81   84.36  -32.67     0.002000       1.0249    2.0469    0.4807
  106.44  102.02  -24.71     0.002000       1.0097    3.7560    0.2583
   94.25   56.06  -27.65     0.002000       0.9636    2.9105    0.3535
   76.18  103.41  -27.54     0.002000       1.0210    3.7250    0.2575
   93.08   90.06  -25.60     0.002000       1.2809    2.0633    0.3778
   92.88   90.50  -27.44     0.002000       1.2050    2.1057    0.3945
   69.59  106.87  -28.16     0.002000       1.0830    2.0782    0.4437
   65.35   81.90  -23.98     0.002000       1.4178    2.4508    0.2846
   87.19   95.64  -24.05     0.002000       0.8750    2.4805    0.4596
  106.25   64.96  -27.83     0.002000       0.9822    2.6669    0.3785
   83.90   99.03  -31.57     0.002000       0.8878    2.1301    0.5327
   81.96  108.08  -25.04     0.002000       0.8462    2.1819    0.5410
  108.37   95.95  -25.29     0.002000       1.0061    3.8684    0.2513
   87.68   81.66  -25.89     0.002000       1.0005    4.5734    0.2118
   90.99   81.07  -18.56     0.002000       0.9641    1.2566    0.8321
   85.61   85.26  -23.04     0.002000       1.4112    2.1396    0.3285
   80.36   91.60  -25.71     0.002000       1.2033    2.1775    0.3812
   78.28   82.77  -25.32     0.002000       1.0014    4.1716    0.2331
   75.07   96.52  -26.89     0.002000       1.0056    4.0117    0.2420
   89.53   90.89  -30.10     0.002000       0.9998    2.3417    0.4295
   85.34   53.70  -26.01     0.002000       0.9679    2.8405    0.3615
   87.89   89.43  -25.89     0.002000       1.3068    2.0352    0.3757
  101.04   88.62  -25.63     0.002000       1.2719    2.1991    0.3563
  114.80   76.00  -28.53     0.002000       1.1583    2.1663    0.3974
   91.71   81.26  -26.49     0.002000       0.7755    2.4760    0.5214
   90.49   83.38  -21.85     0.002000       1.3268    2.0692    0.3619
  121.55   91.31  -25.35     0.002000       1.2748    2.8218    0.2739
   85.17   96.78  -21.95     0.002000       1.0591    2.1613    0.4356
  102.51   67.86  -26.24     0.002000       0.9283    2.2536    0.4764
   94.01  125.99  -27.07     0.002000       0.7540    2.5409    0.5232
   98.63   91.73  -23.28     0.002000       1.2693    2.2384    0.3497
   64.13   85.02  -24.49     0.002000       1.4384    2.4059    0.2858
   87.21   91.39  -26.10     0.002000       1.3921    2.0317    0.3526
   84.27   92.47  -24.45     0.002000       0.9749    1.7248    0.5966
   91.38   87.36  -28.82     0.002000       1.1211    1.7347    0.5166
   83.57   90.28  -25.89     0.002000       1.2275    2.0941    0.3889
   74.37  107.23  -27.14     0.002000       1.0156    1.9353    0.5091
   70.22   88.70  -25.15     0.002000       1.4420    2.2806    0.3016
   66.20   72.93  -23.10     0.002000       1.1739    2.7611    0.3054
   90.12   85.24  -21.28     0.002000       0.9888    1.2351    0.8256
   94.34   90.65  -25.54     0.002000       1.1776    2.3702    0.3570
   94.28   83.31  -27.92     0.002000       0.8545    2.3483    0.4999
  102.47   94.21  -25.67     0.002000       1.0012    4.2602    0.2281
   84.20   96.93  -26.16     0.002000       1.0004    4.4504    0.2177
   84.95  114.84  -26.60     0.002000       1.0062    3.3325    0.2932
   93.11  129.64  -25.04     0.002000       0.8819    2.6649    0.4237
   97.45  110.54  -24.68     0.002000       1.0025    3.6346    0.2690
   66.00  101.36  -27.65     0.002000       1.1909    2.2204    0.3764
   84.77   96.33  -28.16     0.002000       1.0788    1.6674    0.5586
   77.70   96.02  -40.37     0.002000       0.9818    1.6433    0.6273
   80.71   92.55  -25.94     0.002000       1.2235    2.1573    0.3784
   96.40   83.23  -23.16     0.002000       0.9235    1.7668    0.6145
  110.04  100.21  -24.78     0.002000       1.0276    3.6217    0.2637
   85.41   99.70  -29.97     0.002000       0.7956    2.2637    0.5583
   91.60   72.19  -26.10     0.002000       1.0022    3.8492    0.2533
   67.55   63.34  -22.14     0.002000       1.0836    2.5225    0.3642
  109.32  123.78  -19.72     0.002000       0.9290    2.5079    0.4282
   73.71  105.44  -27.75     0.002000       1.0442    3.2723    0.2879
   76.50   78.83  -25.05     0.002000       1.0051    3.9091    0.2490
   98.01   91.55  -28.11     0.002000       1.0402    1.5931    0.6068
   85.30   92.06  -25.97     0.002000       1.0001    4.7009    0.2055
   90.97   96.68  -25.60     0.002000       0.9848    1.2254    0.8361
   83.54   98.85  -28.28     0.002000       1.1524    1.7183    0.5068
  104.99   82.30  -26.83     0.002000       1.0055    3.9260    0.2473
   94.42   83.28  -29.34     0.002000       1.1466    1.7418    0.5029
   77.48   98.36  -28.30     0.002000       1.0833    1.7722    0.5227
   91.23  112.92  -25.73     0.002000       1.0028    3.6147    0.2704
   91.59   92.52  -29.39     0.002000       1.1108    1.6799    0.5387
   79.90   93.92  -28.55     0.002000       1.1474    1.7756    0.4925
   61.84   84.14  -24.91     0.002000       1.3327    2.7415    0.2702
   96.23   89.27  -26.01     0.002000       1.2240    2.1268    0.3839
   83.16   91.09  -26.75     0.002000       1.2748    2.2399    0.3496
   79.49   90.59  -25.24     0.002000       1.2780    2.2578    0.3451
   97.89   87.38  -26.11     0.002000       1.2517    2.1425    0.3723
   82.48  116.54  -27.27     0.002000       1.0084    3.1379    0.3116
   90.40   90.54  -25.44     0.002000       1.0579    1.6807    0.5642
   91.51   89.32  -20.69     0.002000       1.0734    2.1731    0.4267
   95.46   86.82  -26.67     0.002000       1.2268    2.1210    0.3842
   97.67   91.27  -25.87     0.002000       1.0004    4.5462    0.2130
   80.70   89.81  -25.06     0.002000       1.3377    2.2614    0.3287
  110.46   85.61  -26.85     0.002000       1.0221    3.6347    0.2639
   88.77   86.03  -27.90     0.002000       1.0873    1.6335    0.5657
   97.74   90.15  -26.03     0.002000       1.2338    2.1340    0.3793
   85.73   95.56  -26.73     0.002000       0.9679    2.4421    0.4231
   88.93   95.71  -24.63     0.002000       0.8559    2.4427    0.4779
   94.28   98.93  -22.53     0.002000       0.9514    1.7640    0.5971
   99.09   87.83  -29.15     0.002000       1.0542    1.6555    0.5763
  102.41   58.51  -29.62     0.002000       0.9338    2.6860    0.3963
   67.16   94.92  -27.38     0.002000       1.0805    3.4034    0.2674
   81.64   78.64  -25.27     0.002000       1.0014    4.1181    0.2363
   98.04   89.85  -26.73     0.002000       1.2750    2.1311    0.3679
   78.58   83.47  -21.12     0.002000       1.3804    1.9373    0.3718
   88.73   91.57  -22.15     0.002000       0.8381    2.4429    0.4868
  104.04  118.11  -23.68     0.002000       1.0149    3.0362    0.3213
   88.74   71.36  -27.01     0.002000       0.7123    2.4394    0.5769
   66.26   57.89  -20.05     0.002000       1.0492    1.5374    0.6243
   84.30   94.94  -32.46     0.002000       0.9794    2.2125    0.4653
   87.73   89.77  -24.21     0.002000       1.2489    2.3384    0.3402
   99.68   87.74  -30.94     0.002000       0.7401    2.1830    0.6228
  101.63   89.90  -25.18     0.002000       1.3113    2.2581    0.3360
  119.01   82.98  -27.79     0.002000       1.2447    2.6090    0.3051
   66.12   84.78  -25.61     0.002000       1.0898    3.5056    0.2572
   82.12   58.46  -24.61     0.002000       1.0004    2.9073    0.3408
   87.13   94.93  -26.44     0.002000       1.1050    1.7135    0.5297
   65.20  100.28  -28.34     0.002000       1.1486    2.7931    0.3085
   95.94   86.87  -23.89     0.002000       1.1745    2.3166    0.3656
   87.71   98.28  -24.69     0.002000       0.7451    2.4630    0.5443
   85.66   94.51  -37.92     0.002000       1.0118    1.8311    0.5462
   65.52   83.92  -25.12     0.002000       1.1170    3.3048    0.2665
   61.48   85.66  -25.38     0.002000       1.2649    2.9385    0.2653
   93.42   65.17  -26.85     0.002000       1.0039    3.4086    0.2875
  121.63   89.46  -25.46     0.002000       1.2599    2.6801    0.2924
   72.01   86.97  -25.73     0.002000       1.0083    3.8540    0.2518
   89.11   73.94  -25.90     0.002000       1.0015    4.0114    0.2429
   94.17   92.82  -27.39     0.002000       1.0353    1.5484    0.6273
   83.86   91.11  -23.71     0.002000       1.1953    2.1987    0.3790
   80.21   91.99  -24.82     0.002000       1.2493    2.1753    0.3667
  109.52   75.75  -28.39     0.002000       1.0597    3.1723    0.2933
   91.69   62.87  -26.96     0.002000       0.7272    2.6500    0.5185
