MORPHOLOGY AT STRAIN =    1.0000  FOR PHASE  2
   0.613   2.691   0.597  <-- AXES OF PHASE ELLIPSOID
   90.00   90.00   -0.00  <-- EULER ANGLES OF PHASE ELLIPSOID (deg)
   0.718   2.763   0.521  <-- AVERAGE OF GRAIN AXES FOR PHASE
   0.139   0.211   0.183  <-- STANDARD DEV OF AVG GRAIN AXES FOR PHASE
B       500
  175.40   90.28   46.62     0.001000       0.7168    2.0325    0.6811
    7.41   87.63   39.73     0.001000       0.7848    2.4817    0.5067
 -171.49   90.00  101.94     0.001000       0.8509    2.8154    0.4098
  172.57   88.55   57.73     0.001000       0.8698    2.7309    0.4134
  179.94   90.09  104.17     0.001000       0.5767    3.5558    0.4756
 -179.20   89.61   84.03     0.001000       0.5367    3.4674    0.5248
   -7.73   91.59  -41.78     0.001000       0.8200    2.6202    0.4583
 -179.16   89.92   53.85     0.001000       0.6358    3.5272    0.4348
 -178.03   91.58   63.65     0.001000       0.7248    1.9799    0.6920
   -3.60   93.67    1.92     0.001000       0.7270    2.0788    0.6562
 -178.95   89.52  120.94     0.001000       0.5985    3.5330    0.4613
  179.38   90.42   68.89     0.001000       0.5400    3.4683    0.5215
    2.08   94.28  -42.21     0.001000       0.7400    2.0570    0.6517
   -8.24   90.56   14.92     0.001000       0.8429    2.7584    0.4226
   -8.00   90.63  -13.24     0.001000       0.7982    2.5945    0.4759
    0.87   90.40   10.06     0.001000       0.5442    3.5345    0.5074
    1.03   90.29  -39.33     0.001000       0.5552    3.5044    0.5017
    5.42   88.97  -34.49     0.001000       0.8204    3.1611    0.3767
    6.00   87.38  -30.31     0.001000       0.7261    2.1803    0.6258
    1.99   88.91  -10.25     0.001000       0.7032    3.4181    0.4059
    6.24   87.32   10.25     0.001000       0.7312    2.2304    0.6072
 -173.16   91.05   89.42     0.001000       0.8650    3.0317    0.3729
  179.81   90.78   60.59     0.001000       0.5287    3.5326    0.5226
 -171.50   90.15   89.93     0.001000       0.8299    2.7111    0.4371
    0.71   89.08   40.60     0.001000       0.6915    3.4815    0.4049
   -7.26   92.43   45.12     0.001000       0.7848    2.4688    0.5094
  179.29   90.26   77.08     0.001000       0.5411    3.4663    0.5208
   -5.89   89.01  -45.81     0.001000       0.8512    3.0833    0.3723
 -178.98   89.94   84.65     0.001000       0.5510    3.4908    0.5076
  178.72   94.35   97.08     0.001000       0.7499    2.0435    0.6474
    0.89   89.22   43.75     0.001000       0.6154    3.5184    0.4505
  176.79   93.56   94.89     0.001000       0.7350    2.0424    0.6609
 -176.00   94.18  120.54     0.001000       0.7415    2.1367    0.6256
   -3.78   89.86   42.03     0.001000       0.6878    3.3817    0.4199
 -176.67   93.30  106.11     0.001000       0.7277    2.0450    0.6667
 -173.95   92.80   98.26     0.001000       0.7345    2.2032    0.6121
 -173.16   88.57   74.62     0.001000       0.7304    2.2186    0.6112
   -2.99   91.04    3.20     0.001000       0.7516    3.3231    0.3907
 -173.32   89.25   87.34     0.001000       0.8397    3.0885    0.3771
  179.51   89.87   73.24     0.001000       0.5786    3.5552    0.4742
   -0.90   84.97   13.87     0.001000       0.7746    2.1062    0.6076
 -179.00   89.68  127.42     0.001000       0.5321    3.5202    0.5211
  176.06   90.35   62.89     0.001000       0.7031    3.3710    0.4121
  178.14   87.68  119.63     0.001000       0.7208    1.9881    0.6928
    7.84   91.56  -33.68     0.001000       0.8007    2.5790    0.4773
   -3.32   90.55  -35.85     0.001000       0.8220    3.2200    0.3686
   -2.90   93.67  -13.52     0.001000       0.8593    2.3159    0.4961
  177.09   85.13   52.56     0.001000       0.7965    2.1846    0.5690
 -177.71   85.69  111.39     0.001000       0.8425    2.2583    0.5195
    6.52   92.23  -17.30     0.001000       0.8395    2.5477    0.4605
    2.20   91.05  -12.79     0.001000       0.6570    3.4427    0.4315
  178.59   89.05   80.88     0.001000       0.6434    3.4980    0.4334
    0.73   86.41  -42.28     0.001000       0.7326    2.0068    0.6751
  177.84   89.52   95.23     0.001000       0.6236    3.4949    0.4477
  179.66   89.05   99.59     0.001000       0.7182    1.9647    0.7038
    8.19   89.09  -42.98     0.001000       0.8570    2.8206    0.4060
  171.82   89.43   61.19     0.001000       0.7674    2.4762    0.5196
  176.61   85.44   87.43     0.001000       0.8105    2.2381    0.5453
 -179.80   90.51   79.00     0.001000       0.5374    3.4552    0.5261
 -179.01   89.96  129.78     0.001000       0.5853    3.5141    0.4744
  178.96   89.96  111.06     0.001000       0.5443    3.4898    0.5140
  171.75   89.60   54.41     0.001000       0.7813    2.5313    0.4988
  178.86   94.99  102.48     0.001000       0.7759    2.1043    0.6071
 -179.00   89.54  117.03     0.001000       0.5456    3.5155    0.5089
 -179.42   94.98   54.04     0.001000       0.8114    2.1660    0.5633
   -2.86   88.78   38.34     0.001000       0.7195    1.9889    0.6938
 -171.75   89.08   73.31     0.001000       0.8030    2.6033    0.4714
  178.53   88.77   88.39     0.001000       0.7225    1.9712    0.6972
    4.63   88.95   23.25     0.001000       0.8059    3.2008    0.3785
   -4.62   87.36  -32.95     0.001000       0.7175    2.0858    0.6627
    5.37   90.76    7.84     0.001000       0.7804    3.2058    0.3906
  179.81   90.11   62.61     0.001000       0.5624    3.5556    0.4878
   -0.25   90.15   -7.12     0.001000       0.5575    3.5425    0.4940
 -177.06   90.97  133.15     0.001000       0.7582    3.3405    0.3851
  179.64   89.87   59.01     0.001000       0.5870    3.5460    0.4686
    0.97   89.51   -5.59     0.001000       0.5400    3.5034    0.5161
 -171.90   88.73   87.76     0.001000       0.8522    2.7675    0.4165
 -174.40   89.50  107.77     0.001000       0.7191    2.0896    0.6600
    0.58   90.82  -32.30     0.001000       0.6521    3.4938    0.4280
 -172.05   89.97   85.27     0.001000       0.7501    2.3885    0.5518
    7.78   91.06  -43.30     0.001000       0.8680    2.9167    0.3870
    1.06   89.87   29.74     0.001000       0.6069    3.5119    0.4578
 -175.97   89.04  130.24     0.001000       0.7424    3.3101    0.3974
    3.53   90.57   -0.03     0.001000       0.6714    3.3907    0.4290
 -179.59   89.63   83.37     0.001000       0.5389    3.4493    0.5256
  178.17   90.80   87.31     0.001000       0.6491    3.4853    0.4312
    5.78   87.21  -10.14     0.001000       0.8441    2.4672    0.4733
 -178.98   89.87  121.40     0.001000       0.5884    3.5171    0.4715
   -3.96   91.99   38.51     0.001000       0.7169    2.0315    0.6814
    4.00   94.27   -7.88     0.001000       0.7497    2.1512    0.6144
 -179.94   90.45  103.51     0.001000       0.7070    3.4978    0.3940
   -1.36   88.98   -9.40     0.001000       0.6610    3.4598    0.4266
   -0.37   89.88   36.52     0.001000       0.5395    3.5550    0.5087
 -176.70   92.21   44.66     0.001000       0.7248    2.0109    0.6810
 -179.02   89.75  122.24     0.001000       0.5371    3.4926    0.5205
  171.71   89.64   82.68     0.001000       0.7823    2.5359    0.4972
    4.12   86.28  -11.39     0.001000       0.7282    2.0945    0.6502
    8.11   90.97  -39.62     0.001000       0.8617    2.8518    0.3992
  175.79   93.27   70.53     0.001000       0.7301    2.0733    0.6553
    0.35   89.67  -18.25     0.001000       0.6030    3.5262    0.4587
 -177.01   85.74   98.38     0.001000       0.7461    2.0760    0.6403
 -179.38   90.74   78.03     0.001000       0.5366    3.4888    0.5216
  175.71   93.81  104.38     0.001000       0.7380    2.1007    0.6396
  175.53   94.28  121.04     0.001000       0.7531    2.1612    0.6087
 -179.52   89.53   76.79     0.001000       0.5398    3.4544    0.5239
   -5.64   91.35   38.37     0.001000       0.9004    2.7076    0.4025
    0.24   89.59   36.45     0.001000       0.6507    3.5165    0.4261
  178.10   89.98  115.58     0.001000       0.7172    1.9713    0.7023
   -3.75   92.48   52.67     0.001000       0.7217    2.0323    0.6766
   -4.08   91.04   -9.02     0.001000       0.7406    3.2874    0.4012
  172.08   91.64   80.63     0.001000       0.7841    2.5196    0.4993
   -7.58   91.22  -19.06     0.001000       0.7519    2.4126    0.5447
 -179.05   87.44   78.02     0.001000       0.7295    1.9837    0.6861
   -6.12   90.56   -2.19     0.001000       0.7148    2.1539    0.6438
 -177.49   89.67  112.23     0.001000       0.6354    3.4771    0.4417
 -179.12   86.70  108.37     0.001000       0.7338    1.9999    0.6764
  174.04   88.94  131.43     0.001000       0.7166    2.1261    0.6507
    4.58   93.29  -39.62     0.001000       0.7245    2.1061    0.6498
 -172.55   90.84  100.28     0.001000       0.8602    2.9895    0.3807
 -174.77   90.74   72.21     0.001000       0.8438    3.1182    0.3711
  179.85   89.91   51.13     0.001000       0.5610    3.5568    0.4889
 -179.22   89.97   79.81     0.001000       0.5414    3.4625    0.5210
    3.50   90.74   42.37     0.001000       0.7813    3.2921    0.3793
  175.65   88.09   47.73     0.001000       0.7217    2.0352    0.6756
  171.84   90.60   61.59     0.001000       0.8617    2.8905    0.3936
    5.96   87.53    5.16     0.001000       0.8518    2.5213    0.4586
 -179.54   90.18   82.00     0.001000       0.5400    3.4502    0.5244
  176.71   93.18  100.25     0.001000       0.7312    2.0309    0.6682
  179.73   88.65   95.10     0.001000       0.7214    1.9670    0.6998
  179.09   89.91  106.97     0.001000       0.6268    3.5281    0.4410
  179.00   90.31   81.02     0.001000       0.5636    3.5243    0.4914
 -172.12   88.44   95.35     0.001000       0.8364    2.6766    0.4394
    0.69   90.62  -46.54     0.001000       0.5372    3.5338    0.5141
   -1.97   94.75  -25.36     0.001000       0.8093    2.1882    0.5589
 -176.40   94.60   90.91     0.001000       0.7919    2.2173    0.5636
  174.48   88.34  113.88     0.001000       0.7186    2.0984    0.6577
    0.19   89.65   -2.63     0.001000       0.7059    3.4716    0.3977
    7.47   88.95  -17.67     0.001000       0.8644    2.9534    0.3836
  179.82   90.06   89.12     0.001000       0.5766    3.5570    0.4756
   -4.86   93.80   26.81     0.001000       0.7409    2.1848    0.6120
   -8.17   90.66  -43.33     0.001000       0.8142    2.6502    0.4563
    3.34   85.61  -24.44     0.001000       0.8227    2.2534    0.5333
 -178.99   89.95   85.47     0.001000       0.6742    3.5154    0.4112
   -3.75   90.92    8.25     0.001000       0.7096    3.3344    0.4128
 -179.54   89.40   49.47     0.001000       0.6049    3.5327    0.4564
   -2.57   94.43   31.86     0.001000       0.7456    2.0889    0.6366
  174.21   93.60   97.16     0.001000       0.7506    2.2313    0.5911
 -178.88   89.89   84.32     0.001000       0.6121    3.5218    0.4525
 -179.81   89.86   81.74     0.001000       0.5398    3.4421    0.5258
  177.17   85.23   93.97     0.001000       0.7631    2.1242    0.6114
 -179.16   85.88   52.59     0.001000       0.7424    2.0266    0.6596
  179.08   86.02   54.32     0.001000       0.7422    2.0205    0.6618
    3.13   89.18   -9.38     0.001000       0.6690    3.4042    0.4287
  171.84   90.98   85.38     0.001000       0.7793    2.5198    0.5024
  179.72   90.50   85.71     0.001000       0.6269    3.5322    0.4404
    6.52   91.06  -18.01     0.001000       0.8455    3.0649    0.3774
   -1.88   94.77   35.75     0.001000       0.8090    2.1927    0.5580
 -173.06   89.19   47.44     0.001000       0.8450    3.0597    0.3784
   -0.94   89.53   31.96     0.001000       0.5440    3.5171    0.5102
   -0.62   89.50   13.46     0.001000       0.7312    3.4438    0.3870
   -6.62   92.90   30.33     0.001000       0.7628    2.3616    0.5487
  174.46   90.67  124.59     0.001000       0.8863    2.9582    0.3729
 -173.93   86.98   96.64     0.001000       0.7400    2.2149    0.6043
  178.11   92.33   73.48     0.001000       0.7273    1.9881    0.6866
 -172.69   88.47   65.95     0.001000       0.7394    2.2963    0.5828
  178.94   93.13  122.67     0.001000       0.7304    1.9962    0.6808
  171.70   89.98  121.38     0.001000       0.7915    2.5713    0.4844
    0.65   89.14   43.02     0.001000       0.5377    3.5158    0.5164
  179.40   89.89   80.74     0.001000       0.5401    3.4542    0.5236
    6.20   91.02   20.93     0.001000       0.7191    2.1518    0.6405
  171.90   88.94   69.50     0.001000       0.7690    2.4778    0.5181
 -179.06   90.65  130.62     0.001000       0.6088    3.5166    0.4557
  178.96   89.94   83.03     0.001000       0.6657    3.5200    0.4160
 -179.73   89.62  106.01     0.001000       0.7047    3.4986    0.3952
    0.47   94.78   20.16     0.001000       0.8230    2.1878    0.5496
 -172.15   91.36   67.85     0.001000       0.8639    2.7612    0.4116
   -0.38   94.18   17.45     0.001000       0.7420    2.0346    0.6573
 -172.17   91.53  106.15     0.001000       0.8458    2.7118    0.4286
 -171.84   88.92   81.35     0.001000       0.7921    2.5641    0.4854
    0.40   89.46  -33.15     0.001000       0.6503    3.5054    0.4278
  178.38   94.32  116.31     0.001000       0.8511    2.2601    0.5137
 -178.97   90.31   70.05     0.001000       0.5477    3.4996    0.5094
 -172.23   91.78   85.33     0.001000       0.7689    2.4556    0.5230
  177.01   91.65   85.86     0.001000       0.7245    1.9942    0.6871
   -5.64   90.31   24.04     0.001000       0.7140    2.1005    0.6613
  177.85   94.79  125.20     0.001000       0.8181    2.2058    0.5483
  171.97   90.70   54.22     0.001000       0.7585    2.4347    0.5349
   -8.24   89.64    2.01     0.001000       0.8318    2.7143    0.4356
 -171.99   88.79  126.37     0.001000       0.8095    2.6227    0.4639
  177.05   89.22   66.79     0.001000       0.6755    3.4283    0.4215
   -7.60   91.60   15.09     0.001000       0.7698    2.4757    0.5180
 -179.92   92.70   93.95     0.001000       0.7303    1.9844    0.6851
   -1.08   85.26  -45.62     0.001000       0.7542    2.0725    0.6344
 -179.20   89.78   81.00     0.001000       0.5418    3.4653    0.5202
   -2.48   91.18   38.57     0.001000       0.7152    3.3965    0.4016
    1.06   89.92   20.39     0.001000       0.5837    3.5092    0.4764
 -179.27   89.91  124.32     0.001000       0.6252    3.5282    0.4421
  179.00   89.69   49.92     0.001000       0.5512    3.5063    0.5051
    7.81   88.36   16.78     0.001000       0.7930    2.5543    0.4868
   -3.39   94.38    0.54     0.001000       0.8043    2.2338    0.5506
    1.56   90.95   -1.08     0.001000       0.7067    3.4337    0.4019
  178.97   86.79   93.66     0.001000       0.7329    1.9973    0.6782
   -4.20   85.79  -13.33     0.001000       0.7430    2.1563    0.6185
   -0.46   89.80   19.72     0.001000       0.5387    3.5508    0.5100
 -179.70   89.93  100.86     0.001000       0.5647    3.5584    0.4854
    8.18   90.93   -8.25     0.001000       0.8549    2.8116    0.4084
    2.77   91.14  -34.92     0.001000       0.7361    3.3699    0.3932
   -0.84   89.94   11.66     0.001000       0.6644    3.4946    0.4199
   -0.51   90.72   20.96     0.001000       0.6319    3.4998    0.4411
    0.99   93.45    9.26     0.001000       0.7304    2.0075    0.6769
   -5.61   86.21   16.80     0.001000       0.7789    2.2984    0.5524
 -176.97   91.03   79.56     0.001000       0.7469    3.3707    0.3874
   -8.35   89.80  -36.90     0.001000       0.8517    2.8172    0.4092
  179.14   89.47   74.58     0.001000       0.5374    3.4796    0.5223
  179.17   89.97   87.49     0.001000       0.5413    3.4676    0.5203
  177.92   89.13   86.69     0.001000       0.7484    3.4037    0.3827
    0.67   85.53  -24.30     0.001000       0.7459    2.0452    0.6503
  174.33   89.48   90.82     0.001000       0.7926    3.2079    0.3843
    5.33   89.90   24.96     0.001000       0.7548    3.2536    0.3980
  177.39   88.93   96.16     0.001000       0.6772    3.4350    0.4195
    8.22   90.29   17.22     0.001000       0.7945    2.5783    0.4812
    0.86   90.21  -18.86     0.001000       0.5904    3.5207    0.4694
   -1.97   85.59  -11.94     0.001000       0.7408    2.0593    0.6502
   -3.61   93.80  -33.11     0.001000       0.7333    2.0782    0.6508
 -179.93   88.95   84.84     0.001000       0.5370    3.4852    0.5217
  171.65   89.18   83.76     0.001000       0.8380    2.7338    0.4291
 -179.67   89.66  123.07     0.001000       0.7023    3.4947    0.3970
 -176.32   90.04   59.54     0.001000       0.6821    3.4065    0.4202
    7.04   92.08   40.61     0.001000       0.7412    2.2900    0.5830
 -179.72   89.98   81.54     0.001000       0.5396    3.4435    0.5258
    0.85   90.53  -18.30     0.001000       0.5451    3.5250    0.5079
    0.39   90.13   35.32     0.001000       0.5751    3.5504    0.4778
 -179.00   90.21   96.72     0.001000       0.5582    3.5052    0.4989
    4.80   92.80  -10.14     0.001000       0.7203    2.0987    0.6560
  171.82   89.20   99.36     0.001000       0.7782    2.5196    0.5032
    1.02   89.59  -32.15     0.001000       0.5464    3.5210    0.5074
 -178.79   90.16   48.82     0.001000       0.5888    3.5381    0.4683
  178.85   89.20  132.05     0.001000       0.6115    3.5095    0.4546
 -178.18   89.48   86.51     0.001000       0.6163    3.5148    0.4504
  179.10   89.56  115.89     0.001000       0.5412    3.4830    0.5181
  178.95   89.76   71.07     0.001000       0.5572    3.5055    0.4998
 -173.23   91.14   66.14     0.001000       0.8904    2.7897    0.3946
 -172.79   91.95   91.80     0.001000       0.7436    2.3150    0.5747
    1.07   89.97  -26.92     0.001000       0.6347    3.5064    0.4382
  179.11   89.52  109.58     0.001000       0.5429    3.4852    0.5161
  172.51   90.80  105.74     0.001000       0.7348    2.2952    0.5867
 -171.65   89.21   86.17     0.001000       0.8276    2.6965    0.4408
    3.25   86.03    5.62     0.001000       0.7302    2.0697    0.6563
  177.05   87.83  119.54     0.001000       0.7189    2.0028    0.6894
   -0.83   90.20  -15.88     0.001000       0.5928    3.5144    0.4683
   -0.89   89.92    8.94     0.001000       0.5741    3.5092    0.4845
   -0.93   90.08  -32.83     0.001000       0.5786    3.5110    0.4804
   -0.79   90.87  -10.87     0.001000       0.6744    3.4681    0.4169
  179.96   90.43  133.28     0.001000       0.7071    3.4857    0.3954
  179.34   85.72   64.40     0.001000       0.7480    2.0329    0.6525
 -173.11   92.00  119.71     0.001000       0.7360    2.2792    0.5900
   -5.53   90.74  -20.14     0.001000       0.8911    2.9068    0.3777
  174.62   93.67  135.00     0.001000       0.7409    2.1841    0.6121
 -176.10   87.40   89.03     0.001000       0.7270    2.0368    0.6701
 -178.86   94.96   61.84     0.001000       0.7796    2.1097    0.6026
   -1.10   90.80   10.83     0.001000       0.6214    3.4916    0.4497
  178.95   89.63   86.06     0.001000       0.5664    3.5180    0.4898
 -173.54   92.83  123.67     0.001000       0.7433    2.2865    0.5822
 -175.66   94.27  119.87     0.001000       0.7946    2.2707    0.5481
  173.72   88.95   48.83     0.001000       0.8519    3.0780    0.3728
  176.37   87.75   90.49     0.001000       0.7236    2.0178    0.6797
 -178.22   88.88  104.05     0.001000       0.6886    3.4600    0.4093
    1.02   89.97   12.07     0.001000       0.6373    3.5014    0.4371
   -1.14   90.60  -36.32     0.001000       0.7370    3.4344    0.3850
  171.53   89.63   95.67     0.001000       0.8299    2.7067    0.4379
    1.36   85.39   45.38     0.001000       0.7510    2.0606    0.6409
  173.26   87.25   70.76     0.001000       0.7443    2.2778    0.5838
 -173.72   89.11   84.34     0.001000       0.7236    2.1436    0.6391
