MORPHOLOGY AT STRAIN =    1.0000  FOR PHASE  2
   0.632   2.537   0.615  <-- AXES OF PHASE ELLIPSOID
   89.80   90.01    0.00  <-- EULER ANGLES OF PHASE ELLIPSOID (deg)
   0.744   2.615   0.533  <-- AVERAGE OF GRAIN AXES FOR PHASE
   0.138   0.211   0.186  <-- STANDARD DEV OF AVG GRAIN AXES FOR PHASE
B       500
   -5.56   90.20   45.11     0.001000       0.7444    1.8943    0.7048
    8.56   87.65   37.98     0.001000       0.8273    2.3768    0.5023
 -170.77   89.99  102.11     0.001000       0.8718    2.6981    0.4179
  171.87   88.45   58.01     0.001000       0.8946    2.6270    0.4182
  179.88   90.17  103.47     0.001000       0.5974    3.3487    0.4887
 -179.08   89.56   84.57     0.001000       0.5561    3.2318    0.5448
   -8.74   91.64  -42.40     0.001000       0.8588    2.5178    0.4557
 -179.03   89.88   53.95     0.001000       0.6586    3.3367    0.4446
 -177.66   91.93   62.87     0.001000       0.7528    1.8401    0.7179
   -4.47   94.29    1.08     0.001000       0.7566    1.9432    0.6755
 -178.73   89.46  120.01     0.001000       0.6213    3.3330    0.4721
  179.25   90.49   67.32     0.001000       0.5600    3.2321    0.5411
    2.60   95.02  -41.48     0.001000       0.7700    1.9225    0.6711
   -9.07   90.59   14.78     0.001000       0.8687    2.6466    0.4278
   -9.15   90.64  -13.46     0.001000       0.8418    2.4875    0.4710
    0.98   90.46    9.44     0.001000       0.5648    3.3128    0.5228
    1.20   90.30  -38.54     0.001000       0.5773    3.2787    0.5170
    5.72   88.85  -34.31     0.001000       0.8365    3.0105    0.3886
    7.36   87.03  -31.14     0.001000       0.7570    2.0503    0.6393
    2.22   88.76  -11.52     0.001000       0.7245    3.2556    0.4143
    7.73   87.11    8.56     0.001000       0.7635    2.1060    0.6167
 -172.88   91.18   88.97     0.001000       0.8732    2.9002    0.3868
  179.65   90.89   53.36     0.001000       0.5466    3.3075    0.5412
 -170.50   90.16   90.08     0.001000       0.8630    2.6012    0.4385
    0.80   88.93   39.59     0.001000       0.7100    3.3168    0.4147
   -8.42   92.42   43.26     0.001000       0.8264    2.3631    0.5059
  179.15   90.32   76.51     0.001000       0.5611    3.2297    0.5403
   -6.15   88.89  -46.16     0.001000       0.8613    2.9478    0.3855
 -178.81   89.95   84.84     0.001000       0.5718    3.2595    0.5253
  178.50   95.14   97.31     0.001000       0.7795    1.9080    0.6680
    1.06   89.10   42.30     0.001000       0.6365    3.3260    0.4617
  176.16   94.23   95.03     0.001000       0.7635    1.9056    0.6829
 -174.95   94.81  121.78     0.001000       0.7711    2.0032    0.6425
   -4.26   89.85   42.14     0.001000       0.7196    3.1837    0.4272
 -175.86   93.85  107.25     0.001000       0.7558    1.9077    0.6891
 -172.51   93.09   99.71     0.001000       0.7647    2.0744    0.6252
 -171.65   88.45   73.90     0.001000       0.7616    2.0921    0.6224
   -3.28   91.13    2.15     0.001000       0.7720    3.1749    0.3988
 -173.01   89.16   87.68     0.001000       0.8489    2.9368    0.3930
  179.44   89.91   73.66     0.001000       0.5992    3.3442    0.4879
   -1.07   84.15   13.72     0.001000       0.8065    1.9764    0.6226
 -178.86   89.56  131.85     0.001000       0.5515    3.2931    0.5388
  175.59   90.39   62.62     0.001000       0.7341    3.1740    0.4200
  177.64   87.31  121.66     0.001000       0.7491    1.8492    0.7178
    8.94   91.57  -32.81     0.001000       0.8438    2.4737    0.4725
   -3.53   90.60  -36.15     0.001000       0.8344    3.0981    0.3780
   -3.60   94.09  -14.34     0.001000       0.8904    2.2042    0.5036
  176.42   84.42   52.87     0.001000       0.8276    2.0590    0.5817
 -177.15   85.13  111.03     0.001000       0.8745    2.1394    0.5289
    7.36   92.29  -15.75     0.001000       0.8757    2.4459    0.4602
    2.50   91.15  -11.54     0.001000       0.6820    3.2610    0.4397
  178.34   88.94   82.07     0.001000       0.6664    3.3106    0.4430
    0.79   85.72  -41.48     0.001000       0.7623    1.8694    0.6975
  177.49   89.50   95.87     0.001000       0.6501    3.2957    0.4564
  179.52   88.89  102.47     0.001000       0.7460    1.8234    0.7312
    8.84   88.98  -42.70     0.001000       0.8769    2.7059    0.4141
  170.60   89.43   61.42     0.001000       0.8133    2.3672    0.5133
  175.75   84.86   88.24     0.001000       0.8413    2.1170    0.5561
 -179.78   90.62   78.57     0.001000       0.5570    3.2169    0.5466
 -178.81   89.97  130.20     0.001000       0.6088    3.3002    0.4868
  178.78   90.01  112.63     0.001000       0.5650    3.2577    0.5319
  170.56   89.59   54.47     0.001000       0.8273    2.4224    0.4926
  178.66   95.81  102.60     0.001000       0.8070    1.9729    0.6234
 -178.84   89.47  118.35     0.001000       0.5660    3.2888    0.5257
 -179.32   95.74   53.95     0.001000       0.8435    2.0407    0.5758
   -3.39   88.42   36.18     0.001000       0.7476    1.8495    0.7191
 -170.62   89.07   72.94     0.001000       0.8453    2.4961    0.4674
  178.22   88.56   89.05     0.001000       0.7503    1.8305    0.7241
    4.92   88.87   22.94     0.001000       0.8242    3.0549    0.3884
   -5.74   86.99  -31.49     0.001000       0.7465    1.9488    0.6828
    5.75   90.84    7.76     0.001000       0.8022    3.0323    0.4026
  179.69   90.15   61.65     0.001000       0.5831    3.3466    0.5010
   -0.36   90.18   -8.33     0.001000       0.5786    3.3355    0.5067
   -3.22   88.92  -45.78     0.001000       0.7774    3.1916    0.3938
  179.58   89.82   58.30     0.001000       0.6078    3.3388    0.4818
    1.12   89.43   -5.91     0.001000       0.5612    3.2749    0.5326
 -171.12   88.64   87.75     0.001000       0.8783    2.6599    0.4208
 -173.21   89.32  108.57     0.001000       0.7473    1.9531    0.6805
    0.68   90.97  -31.22     0.001000       0.6723    3.3180    0.4380
 -170.66   89.96   85.35     0.001000       0.7913    2.2790    0.5487
    8.19   91.16  -43.62     0.001000       0.8792    2.7943    0.3994
    1.25   89.87   29.44     0.001000       0.6310    3.3081    0.4684
 -175.59   88.96  129.94     0.001000       0.7698    3.1297    0.4061
    3.96   90.61    0.51     0.001000       0.7021    3.1981    0.4359
 -179.53   89.59   83.77     0.001000       0.5588    3.2101    0.5460
  177.88   90.92   86.21     0.001000       0.6736    3.2961    0.4403
    6.58   87.11  -12.04     0.001000       0.8780    2.3656    0.4750
 -178.77   89.86  121.78     0.001000       0.6118    3.3041    0.4838
   -4.88   92.24   36.66     0.001000       0.7447    1.8932    0.7049
    4.96   94.92   -7.15     0.001000       0.7805    2.0215    0.6289
 -179.95   90.58  104.12     0.001000       0.7259    3.3356    0.4031
   -1.60   88.82   -8.03     0.001000       0.6830    3.2841    0.4358
   -0.41   89.87   35.52     0.001000       0.5589    3.3380    0.5242
 -176.09   92.71   43.63     0.001000       0.7529    1.8735    0.7047
 -178.86   89.67  125.51     0.001000       0.5572    3.2614    0.5387
  170.52   89.65   82.88     0.001000       0.8282    2.4267    0.4912
    5.07   85.66  -12.07     0.001000       0.7578    1.9597    0.6687
    8.68   91.05  -39.76     0.001000       0.8780    2.7344    0.4091
  174.85   93.82   69.84     0.001000       0.7582    1.9363    0.6766
    0.43   89.56  -19.27     0.001000       0.6241    3.3307    0.4703
 -176.38   85.01   98.42     0.001000       0.7755    1.9417    0.6596
 -179.29   90.89   77.78     0.001000       0.5557    3.2565    0.5410
  174.80   94.47  104.24     0.001000       0.7669    1.9656    0.6587
  174.53   94.94  120.60     0.001000       0.7832    2.0305    0.6238
 -179.44   89.48   76.10     0.001000       0.5598    3.2162    0.5440
   -6.15   91.43   37.72     0.001000       0.9202    2.6005    0.4105
    0.24   89.47   37.00     0.001000       0.6712    3.3361    0.4363
  177.72   90.13  119.06     0.001000       0.7452    1.8307    0.7290
   -4.61   92.87   51.37     0.001000       0.7494    1.8942    0.7001
   -4.49   91.12   -9.45     0.001000       0.7693    3.1094    0.4091
  170.94   91.65   79.59     0.001000       0.8283    2.4119    0.4942
   -8.88   91.23  -19.88     0.001000       0.7957    2.3046    0.5393
 -178.83   86.95   77.90     0.001000       0.7578    1.8443    0.7114
   -7.52   90.61   -2.67     0.001000       0.7455    2.0205    0.6589
 -177.13   89.65  111.89     0.001000       0.6631    3.2775    0.4500
 -179.01   86.07  109.18     0.001000       0.7629    1.8622    0.6997
    7.29   91.12  -47.45     0.001000       0.7460    1.9913    0.6683
    5.69   93.76  -38.29     0.001000       0.7540    1.9712    0.6681
 -172.21   90.94  100.00     0.001000       0.8688    2.8539    0.3955
 -174.55   90.83   71.87     0.001000       0.8546    2.9859    0.3833
  179.75   89.88   51.48     0.001000       0.5818    3.3471    0.5021
 -179.10   89.98   79.71     0.001000       0.5615    3.2259    0.5406
    3.73   90.82   42.94     0.001000       0.7986    3.1518    0.3882
  174.80   87.66   46.86     0.001000       0.7495    1.8975    0.6987
  171.32   90.66   61.68     0.001000       0.8747    2.7655    0.4059
    6.72   87.45    3.38     0.001000       0.8857    2.4190    0.4601
 -179.47   90.23   82.22     0.001000       0.5600    3.2110    0.5447
  176.07   93.80  100.60     0.001000       0.7595    1.8936    0.6910
  179.63   88.41   96.56     0.001000       0.7493    1.8260    0.7268
  178.91   89.94  107.24     0.001000       0.6504    3.3315    0.4510
  178.82   90.38   80.99     0.001000       0.5849    3.3008    0.5068
 -171.18   88.37   94.90     0.001000       0.8708    2.5732    0.4393
    0.82   90.66  -44.35     0.001000       0.5568    3.3102    0.5308
   -2.44   95.43  -25.59     0.001000       0.8418    2.0664    0.5696
 -175.46   95.24   91.78     0.001000       0.8222    2.0929    0.5758
  173.25   88.19  115.15     0.001000       0.7471    1.9621    0.6775
    0.23   89.55   -2.24     0.001000       0.7263    3.3132    0.4057
    7.81   88.82  -17.17     0.001000       0.8738    2.8271    0.3970
  179.83   90.14   90.05     0.001000       0.5968    3.3481    0.4893
   -6.13   94.29   25.22     0.001000       0.7713    2.0550    0.6258
   -9.25   90.71  -43.31     0.001000       0.8535    2.5431    0.4540
    4.15   85.05  -25.12     0.001000       0.8542    2.1368    0.5423
 -178.79   89.97   85.47     0.001000       0.6987    3.3380    0.4187
   -4.20   90.98    7.61     0.001000       0.7404    3.1483    0.4199
 -179.44   89.28   48.17     0.001000       0.6254    3.3363    0.4685
   -3.24   95.18   31.01     0.001000       0.7756    1.9546    0.6550
  172.87   94.04   96.04     0.001000       0.7812    2.1056    0.6027
 -178.66   89.89   84.36     0.001000       0.6359    3.3173    0.4634
 -179.79   89.86   81.87     0.001000       0.5600    3.2013    0.5465
  176.48   84.48   94.53     0.001000       0.7933    1.9923    0.6280
 -178.91   85.15   51.99     0.001000       0.7717    1.8905    0.6811
  178.95   85.29   53.84     0.001000       0.7716    1.8839    0.6836
    3.53   89.10  -10.39     0.001000       0.6982    3.2150    0.4359
  170.67   90.99   84.81     0.001000       0.8249    2.4109    0.4965
  179.62   90.64   84.75     0.001000       0.6474    3.3422    0.4516
    6.81   91.18  -18.46     0.001000       0.8557    2.9240    0.3915
   -2.43   95.47   35.18     0.001000       0.8408    2.0689    0.5696
 -172.75   89.10   47.71     0.001000       0.8538    2.9119    0.3942
   -1.11   89.44   30.57     0.001000       0.5646    3.2905    0.5267
   -0.67   89.38   14.01     0.001000       0.7487    3.2952    0.3957
   -8.01   93.00   28.24     0.001000       0.7994    2.2516    0.5498
  174.27   90.76  125.20     0.001000       0.8934    2.8426    0.3856
 -172.54   86.62   95.72     0.001000       0.7705    2.0880    0.6164
  177.70   92.77   73.15     0.001000       0.7553    1.8486    0.7121
 -171.15   88.41   64.93     0.001000       0.7741    2.1794    0.5873
  178.82   93.76  123.74     0.001000       0.7596    1.8578    0.7045
  170.51   90.01  121.52     0.001000       0.8367    2.4630    0.4788
    0.78   89.04   40.64     0.001000       0.5572    3.2883    0.5341
  179.28   89.89   80.68     0.001000       0.5602    3.2155    0.5437
    7.57   91.22   20.74     0.001000       0.7494    2.0195    0.6558
  170.69   88.94   70.11     0.001000       0.8144    2.3690    0.5122
 -178.84   90.77  132.19     0.001000       0.6307    3.3226    0.4666
  178.73   89.96   83.08     0.001000       0.6901    3.3379    0.4240
 -179.65   89.55  106.39     0.001000       0.7260    3.3354    0.4031
    0.52   95.47   20.03     0.001000       0.8559    2.0664    0.5602
 -171.44   91.46   68.04     0.001000       0.8883    2.6565    0.4165
   -0.53   94.95   16.87     0.001000       0.7724    1.8994    0.6772
 -171.27   91.61  106.71     0.001000       0.8770    2.6076    0.4302
 -170.70   88.92   80.87     0.001000       0.8364    2.4569    0.4802
    0.47   89.31  -34.05     0.001000       0.6706    3.3267    0.4380
  178.02   94.91  116.13     0.001000       0.8836    2.1400    0.5232
 -178.80   90.38   69.56     0.001000       0.5679    3.2696    0.5271
 -171.00   91.78   86.63     0.001000       0.8118    2.3485    0.5184
  176.42   91.99   86.09     0.001000       0.7522    1.8550    0.7126
   -6.89   90.26   22.97     0.001000       0.7429    1.9636    0.6808
  177.37   95.48  125.03     0.001000       0.8502    2.0831    0.5593
  170.68   90.67   53.55     0.001000       0.8031    2.3256    0.5294
   -9.20   89.61    1.95     0.001000       0.8632    2.6048    0.4378
 -170.91   88.74  126.07     0.001000       0.8503    2.5172    0.4605
  176.66   89.16   67.49     0.001000       0.7042    3.2354    0.4293
   -8.78   91.58   13.82     0.001000       0.8153    2.3684    0.5117
 -179.84   93.23   94.65     0.001000       0.7588    1.8448    0.7103
   -1.41   84.44  -45.09     0.001000       0.7850    1.9389    0.6525
 -179.07   89.77   80.99     0.001000       0.5619    3.2291    0.5397
   -2.80   91.30   37.36     0.001000       0.7391    3.2302    0.4094
    1.25   89.91   20.02     0.001000       0.6073    3.2954    0.4888
 -179.13   89.95  124.31     0.001000       0.6483    3.3340    0.4521
  178.81   89.64   48.94     0.001000       0.5722    3.2780    0.5218
    8.93   88.36   15.74     0.001000       0.8372    2.4486    0.4814
   -4.28   94.95   -0.38     0.001000       0.8357    2.1154    0.5603
    1.71   91.09   -0.07     0.001000       0.7259    3.2764    0.4108
  178.73   86.21   94.20     0.001000       0.7615    1.8591    0.7022
   -5.27   85.16  -12.37     0.001000       0.7736    2.0248    0.6334
   -0.53   89.78   19.20     0.001000       0.5584    3.3327    0.5255
 -179.69   89.97  100.47     0.001000       0.5849    3.3463    0.4996
    8.82   91.02   -8.47     0.001000       0.8748    2.6983    0.4164
    3.04   91.24  -33.80     0.001000       0.7570    3.2154    0.4014
   -1.06   89.94   11.56     0.001000       0.6893    3.3169    0.4273
   -0.65   90.87   19.69     0.001000       0.6525    3.3166    0.4517
    1.14   94.13    8.65     0.001000       0.7603    1.8706    0.6989
   -6.89   85.85   18.26     0.001000       0.8109    2.1847    0.5588
 -176.69   91.14   80.44     0.001000       0.7690    3.2096    0.3958
   -9.05   89.79  -36.74     0.001000       0.8713    2.7000    0.4178
  178.99   89.39   73.84     0.001000       0.5568    3.2455    0.5418
  179.02   90.00   88.13     0.001000       0.5615    3.2314    0.5397
  177.73   89.02   87.51     0.001000       0.7654    3.2573    0.3916
    0.76   84.73  -24.09     0.001000       0.7768    1.9106    0.6694
  173.92   89.43   90.72     0.001000       0.8111    3.0316    0.3982
    5.78   89.90   24.90     0.001000       0.7807    3.0664    0.4091
  177.04   88.85   97.14     0.001000       0.7043    3.2486    0.4274
    9.38   90.32   17.17     0.001000       0.8389    2.4715    0.4758
    1.01   90.22  -18.67     0.001000       0.6140    3.3130    0.4807
   -2.43   84.81  -11.71     0.001000       0.7713    1.9245    0.6692
   -4.37   94.48  -33.05     0.001000       0.7631    1.9438    0.6696
 -179.94   88.80   85.51     0.001000       0.5562    3.2524    0.5412
  170.73   89.14   83.86     0.001000       0.8682    2.6229    0.4321
 -179.57   89.60  123.42     0.001000       0.7244    3.3310    0.4046
 -175.90   90.06   59.63     0.001000       0.7124    3.2071    0.4283
 -171.46   92.25   41.53     0.001000       0.7752    2.1730    0.5882
 -179.67   90.00   81.64     0.001000       0.5597    3.2030    0.5464
    0.99   90.59  -17.85     0.001000       0.5663    3.3017    0.5233
    0.49   90.19   36.14     0.001000       0.5961    3.3447    0.4904
 -178.82   90.26   97.20     0.001000       0.5795    3.2780    0.5152
    5.89   93.26   -9.50     0.001000       0.7499    1.9635    0.6744
  170.63   89.23   99.91     0.001000       0.8243    2.4107    0.4969
    1.17   89.49  -31.35     0.001000       0.5676    3.2964    0.5230
 -178.58   90.21   49.47     0.001000       0.6118    3.3349    0.4792
  178.62   89.10  133.51     0.001000       0.6339    3.3175    0.4649
 -177.90   89.44   85.78     0.001000       0.6412    3.3145    0.4601
  178.93   89.55  118.22     0.001000       0.5617    3.2498    0.5363
  178.76   89.73   70.78     0.001000       0.5784    3.2772    0.5163
 -172.79   91.24   66.23     0.001000       0.9063    2.6824    0.4037
 -171.27   92.04   93.13     0.001000       0.7786    2.1992    0.5784
    1.27   89.96  -26.84     0.001000       0.6596    3.3164    0.4468
  178.94   89.49  111.40     0.001000       0.5634    3.2524    0.5343
  170.98   90.88  105.48     0.001000       0.7701    2.1767    0.5911
 -170.65   89.17   86.11     0.001000       0.8622    2.5880    0.4412
    4.02   85.36    4.75     0.001000       0.7597    1.9342    0.6760
  176.35   87.53  121.47     0.001000       0.7468    1.8646    0.7138
   -1.02   90.21  -15.82     0.001000       0.6168    3.3067    0.4795
   -1.09   89.90    8.63     0.001000       0.5974    3.2918    0.4975
   -1.13   90.08  -32.48     0.001000       0.6020    3.2954    0.4931
   -0.93   91.02  -11.96     0.001000       0.6944    3.3007    0.4263
  179.93   90.56  133.84     0.001000       0.7268    3.3252    0.4040
  179.24   84.95   64.15     0.001000       0.7777    1.8971    0.6735
 -171.55   92.09  121.23     0.001000       0.7700    2.1595    0.5959
   -5.72   90.81  -19.51     0.001000       0.8981    2.7968    0.3901
  173.39   94.19  134.23     0.001000       0.7713    2.0548    0.6258
 -175.30   86.91   89.14     0.001000       0.7548    1.8998    0.6930
 -178.63   95.78   61.79     0.001000       0.8106    1.9792    0.6185
   -1.34   90.92    9.32     0.001000       0.6436    3.3042    0.4598
  178.76   89.60   86.19     0.001000       0.5881    3.2941    0.5050
 -172.02   93.01  125.52     0.001000       0.7769    2.1677    0.5883
 -174.52   94.76  121.25     0.001000       0.8254    2.1524    0.5573
  173.44   88.83   48.32     0.001000       0.8614    2.9394    0.3868
  175.60   87.39   91.12     0.001000       0.7512    1.8799    0.7039
 -178.00   88.76  103.06     0.001000       0.7111    3.2861    0.4181
    1.22   89.97   11.89     0.001000       0.6621    3.3130    0.4456
   -1.23   90.70  -36.92     0.001000       0.7541    3.2874    0.3938
  170.53   89.63   95.80     0.001000       0.8632    2.5962    0.4393
    1.74   84.61   44.81     0.001000       0.7810    1.9262    0.6603
  171.77   87.04   72.09     0.001000       0.7768    2.1571    0.5913
 -172.36   88.98   84.20     0.001000       0.7526    2.0100    0.6562
